#FILE:VA_130319_Cu_02_Ar.ngb-ss1
#FORMAT:NETZSCH5
#IDENTITY:VA_130319_Cu_02_Ar
#DECIMAL:POINT
#SEPARATOR:SEMICOLON
#MTYPE:DSC
#INSTRUMENT:NETZSCH STA 449F1
#PROJECT:oxide hydroxide
#DATE/TIME:19.03.2013 11:34:23
#CORR. FILE:
#LABORATORY:Нанотех
#OPERATOR:Compositers
#REMARK:
#SAMPLE:VA_130319_Cu_02_Ar
#SAMPLE MASS /mg:7.81
#MATERIAL:MxOy.kH2O
#REFERENCE:
#REFERENCE MASS /mg:0
#TYPE OF CRUCIBLE:DSC/TG pan Pt-Rh
#SAMPLE CRUCIBLE MASS /mg:183.71
#REFERENCE CRUCIBLE MASS /mg:185
#CORR. CODE:000
#EXO:+1
#RANGE:20/2.0(K/min)/350
#SEGMENT:S1/1

##Temp./°C;Time/min;DSC/(uV/mg);Mass/%;Gas Flow(protective)/(ml/min);Sensit./(uV/mW)
23.9404	     0.00000      0.25692   100.0000   20.00000 1.04891
23.9409	     0.16500      0.25683   99.99447   20.00000 1.04891
23.9407	     0.33000      0.25682   99.99452   20.00000 1.04891
23.9416	     0.49500      0.25663   99.99429   20.00000 1.04891
23.9461	     0.66000      0.25623   99.99427   20.00000 1.04891
23.9556	     0.82500      0.25663   99.99106   20.00000 1.04891
23.9709	     0.99000      0.25643   99.98712   20.00000 1.04891
23.994	     1.15500      0.25625   99.97656   20.00000 1.04891
24.0271	     1.32000      0.25653   99.97543   20.00000 1.04891
24.0708	     1.48500      0.25626   99.98484   20.00000 1.04891
24.1237	     1.65000      0.25653   99.98352   20.00000 1.04891
24.1883	     1.81500      0.25647   99.99734   20.00000 1.04891
24.2685	     1.98000      0.25623   99.99575   20.00000 1.04891
24.3621	     2.14500      0.25556   100.0089   20.00000 1.04891
24.4674	     2.31000      0.25467   100.0187   20.00000 1.04890
24.5841	     2.47500      0.25386   100.0269   20.00000 1.04888
24.7149	     2.64000      0.25262   100.0235   20.00000 1.04887
24.8555	     2.80500      0.25060   100.0125   20.00000 1.04884
24.9998	     2.97000      0.24881   100.0061   20.00000 1.04881
25.1532	     3.13500      0.24687   99.99987   20.00000 1.04878
25.3163	     3.30000      0.24402   99.99407   20.00000 1.04873
25.4885	     3.46500      0.24158   99.98745   20.00000 1.04868
25.6664	     3.63000      0.23973   99.9874   20.00000 1.04862
25.8519	     3.79500      0.23660   99.98812   20.00000 1.04856
26.0473	     3.96000      0.23416   99.99915   20.00000 1.04848
26.2494	     4.12500      0.23270   99.9955   20.00000 1.04841
26.4549	     4.29000      0.23015   99.99648   20.00000 1.04833
26.6661	     4.45500      0.22806   99.9982   20.00000 1.04824
26.8837	     4.62000      0.22605   99.98917   20.00000 1.04815
27.1051	     4.78500      0.22478   99.99388   20.00000 1.04806
27.3308	     4.95000      0.22283   100.0012   20.00000 1.04796
27.561	     5.11500      0.22115   100.0038   20.00000 1.04785
27.7953	     5.28000      0.22019   100.0015   20.00000 1.04775
28.0344	     5.44500      0.21914   100.0092   20.00000 1.04763
28.2757	     5.61000      0.21745   100.0012   20.00000 1.04752
28.5219	     5.77500      0.21643   100.0024   20.00000 1.04740
28.7716	     5.94000      0.21560   100.0028   20.00000 1.04728
29.0251	     6.10500      0.21372   100.0044   20.00000 1.04716
29.2814	     6.27000      0.21325   100.0066   20.00000 1.04703
29.5398	     6.43500      0.21203   99.99566   20.00000 1.04691
29.8023	     6.60000      0.21013   99.99882   20.00000 1.04677
30.0661	     6.76500      0.20934   100.0037   20.00000 1.04664
30.3329	     6.93000      0.20886   99.99983   20.00000 1.04651
30.6003	     7.09500      0.20705   100.0018   20.00000 1.04637
30.8704	     7.26000      0.20602   99.99853   20.00000 1.04623
31.1419	     7.42500      0.20512   100.0040   20.00000 1.04609
31.4152	     7.59000      0.20348   100.0038   20.00000 1.04595
31.6926	     7.75500      0.20341   100.0024   20.00000 1.04581
31.9725	     7.92000      0.20133   99.9958   20.00000 1.04566
32.2537	     8.08500      0.20162   100.0036   20.00000 1.04551
32.5361	     8.25000      0.20006   100.0008   20.00000 1.04537
32.8216	     8.41500      0.19989   99.99485   20.00000 1.04522
33.108	     8.58000      0.19909   100.0017   20.00000 1.04507
33.3953	     8.74500      0.19748   100.0031   20.00000 1.04492
33.6839	     8.91000      0.19743   100.0031   20.00000 1.04476
33.9732	     9.07500      0.19652   100.0012   20.00000 1.04461
34.2649	     9.24000      0.19577   99.99647   20.00000 1.04445
34.5564	     9.40500      0.19527   100.0046   20.00000 1.04430
34.8501	     9.57000      0.19362   100.0047   20.00000 1.04414
35.1426	     9.73500      0.19355   100.0011   20.00000 1.04398
35.4364	     9.90000      0.19274   100.0004   20.00000 1.04382
35.7317	    10.06500      0.19241   99.99524   20.00000 1.04366
36.0282	    10.23000      0.19147   99.99903   20.00000 1.04350
36.3259	    10.39500      0.19077   99.99773   20.00000 1.04334
36.6245	    10.56000      0.19020   99.99999   20.00000 1.04318
36.9241	    10.72500      0.18891   99.99775   20.00000 1.04302
37.2239	    10.89000      0.18873   100.0026   20.00000 1.04285
37.5243	    11.05500      0.18834   99.99705   20.00000 1.04269
37.8251	    11.22000      0.18688   99.99646   20.00000 1.04253
38.1265	    11.38500      0.18603   99.99157   20.00000 1.04236
38.4299	    11.55000      0.18561   99.99243   20.00000 1.04220
38.7335	    11.71500      0.18464   99.98656   20.00000 1.04203
39.0388	    11.88000      0.18385   99.98826   20.00000 1.04187
39.3441	    12.04500      0.18351   99.97539   20.00000 1.04170
39.6507	    12.21000      0.18199   99.97695   20.00000 1.04153
39.9568	    12.37500      0.18120   99.95391   20.00000 1.04137
40.2625	    12.54000      0.18141   99.93528   20.00000 1.04120
40.5691	    12.70500      0.17931   99.90888   20.00000 1.04103
40.8757	    12.87000      0.17838   99.89949   20.00000 1.04086
41.1834	    13.03500      0.17836   99.8729   20.00000 1.04069
41.4899	    13.20000      0.17691   99.8487   20.00000 1.04053
41.7969	    13.36500      0.17578   99.82826   20.00000 1.04036
42.1042	    13.53000      0.17554   99.79988   20.00000 1.04018
42.4097	    13.69500      0.17430   99.77434   20.00000 1.04001
42.7156	    13.86000      0.17310   99.73594   20.00000 1.03984
43.0205	    14.02500      0.17206   99.69857   20.00000 1.03967
43.3238	    14.19000      0.17027   99.66959   20.00000 1.03950
43.6263	    14.35500      0.16864   99.61036   20.00000 1.03933
43.9276	    14.52000      0.16665   99.56372   20.00000 1.03916
44.2285	    14.68500      0.16480   99.51921   20.00000 1.03899
44.5284	    14.85000      0.16021   99.46223   20.00000 1.03882
44.8286	    15.01500      0.15293   99.40026   20.00000 1.03865
45.1298	    15.18000      0.12494   99.33513   20.00000 1.03848
45.4313	    15.34500  8.1871e-002   99.27414   20.00000 1.03831
45.7335	    15.51000  4.9625e-002   99.20655   20.00000 1.03814
46.0359	    15.67500  1.3226e-002   99.14336   20.00000 1.03797
46.3389	    15.84000 -1.9342e-002   99.06446   20.00000 1.03780
46.6418	    16.00500 -4.7026e-002   98.99108   20.00000 1.03764
46.9448	    16.17000 -6.7502e-002   98.91782   20.00000 1.03747
47.2473	    16.33500 -8.5411e-002   98.83506   20.00000 1.03730
47.5482	    16.50000     -0.10247   98.7378   20.00000 1.03713
47.8495	    16.66500     -0.11790   98.63067   20.00000 1.03697
48.152	    16.83000     -0.13217   98.51451   20.00000 1.03680
48.4546	    16.99500     -0.14619   98.40691   20.00000 1.03663
48.7576	    17.16000     -0.16060   98.27837   20.00000 1.03646
49.0605	    17.32500     -0.17528   98.15397   20.00000 1.03629
49.3651	    17.49000     -0.18961   98.0248   20.00000 1.03612
49.6701	    17.65500     -0.20296   97.89269   20.00000 1.03596
49.9737	    17.82000     -0.21735   97.75931   20.00000 1.03579
50.2769	    17.98500     -0.23178   97.60809   20.00000 1.03562
50.5802	    18.15000     -0.24510   97.44481   20.00000 1.03545
50.8816	    18.31500     -0.25959   97.29267   20.00000 1.03528
51.1834	    18.48000     -0.27392   97.13817   20.00000 1.03511
51.4851	    18.64500     -0.28897   96.97002   20.00000 1.03495
51.7871	    18.81000     -0.30312   96.79866   20.00000 1.03478
52.09	    18.97500     -0.31698   96.6293   20.00000 1.03461
52.3928	    19.14000     -0.32960   96.45281   20.00000 1.03444
52.6971	    19.30500     -0.34478   96.26865   20.00000 1.03427
53.0022	    19.47000     -0.35754   96.0849   20.00000 1.03410
53.3077	    19.63500     -0.37233   95.89873   20.00000 1.03393
53.613	    19.80000     -0.38528   95.70008   20.00000 1.03376
53.9171	    19.96500     -0.40023   95.49499   20.00000 1.03359
54.2213	    20.13000     -0.41390   95.29186   20.00000 1.03343
54.526	    20.29500     -0.42871   95.07705   20.00000 1.03326
54.8309	    20.46000     -0.44174   94.86638   20.00000 1.03309
55.1375	    20.62500     -0.45619   94.64927   20.00000 1.03292
55.4447	    20.79000     -0.46900   94.41896   20.00000 1.03275
55.7525	    20.95500     -0.48231   94.19172   20.00000 1.03258
56.0601	    21.12000     -0.49684   93.96247   20.00000 1.03241
56.3674	    21.28500     -0.51047   93.71782   20.00000 1.03224
56.6758	    21.45000     -0.52497   93.47441   20.00000 1.03207
56.9825	    21.61500     -0.53810   93.22494   20.00000 1.03190
57.2895	    21.78000     -0.55223   92.97826   20.00000 1.03173
57.5968	    21.94500     -0.56620   92.72455   20.00000 1.03156
57.9046	    22.11000     -0.57870   92.4604   20.00000 1.03139
58.2128	    22.27500     -0.59246   92.19459   20.00000 1.03122
58.5207	    22.44000     -0.60605   91.92997   20.00000 1.03104
58.8279	    22.60500     -0.61817   91.64902   20.00000 1.03087
59.1368	    22.77000     -0.63038   91.36609   20.00000 1.03070
59.445	    22.93500     -0.64395   91.08719   20.00000 1.03053
59.754	    23.10000     -0.65617   90.80198   20.00000 1.03036
60.0633	    23.26500     -0.66827   90.51957   20.00000 1.03019
60.3734	    23.43000     -0.68010   90.24297   20.00000 1.03002
60.6851	    23.59500     -0.69114   89.9304   20.00000 1.02984
60.9967	    23.76000     -0.70169   89.6367   20.00000 1.02967
61.3092	    23.92500     -0.71072   89.3335   20.00000 1.02950
61.6228	    24.09000     -0.72025   89.0233   20.00000 1.02933
61.937	    24.25500     -0.72983   88.7439   20.00000 1.02916
62.2522	    24.42000     -0.73754   88.4366   20.00000 1.02899
62.5687	    24.58500     -0.74465   88.1374   20.00000 1.02881
62.8859	    24.75000     -0.75004   87.8382   20.00000 1.02864
63.2069	    24.91500     -0.75377   87.5535   20.00000 1.02847
63.5306	    25.08000     -0.75630   87.2776   20.00000 1.02829
63.8578	    25.24500     -0.75638   87.0041   20.00000 1.02812
64.1887	    25.41000     -0.75317   86.7638   20.00000 1.02794
64.5251	    25.57500     -0.74601   86.5549   20.00000 1.02777
64.8666	    25.74000     -0.73481   86.367   20.00000 1.02759
65.212	    25.90500     -0.71834   86.202   20.00000 1.02742
65.5598	    26.07000     -0.69427   86.0566   20.00000 1.02724
65.9101	    26.23500     -0.66069   85.9178   20.00000 1.02706
66.2618	    26.40000     -0.61553   85.8058   20.00000 1.02688
66.6106	    26.56500     -0.55703   85.7068   20.00000 1.02670
66.9582	    26.73000     -0.47808   85.6465   20.00000 1.02651
67.3027	    26.89500     -0.37497   85.6115   20.00000 1.02633
67.6449	    27.06000     -0.24500   85.594   20.00000 1.02613
67.9847	    27.22500     -0.10828   85.5791   20.00000 1.02594
68.3224	    27.39000 -3.4188e-003   85.5692   20.00000 1.02575
68.6592	    27.55500  6.1262e-002   85.5511   20.00000 1.02555
68.9941	    27.72000  9.8860e-002   85.538   20.00000 1.02536
69.3278	    27.88500      0.12242   85.5313   20.00000 1.02516
69.6608	    28.05000      0.13549   85.5195   20.00000 1.02497
69.9929	    28.21500      0.14238   85.5046   20.00000 1.02478
70.3237	    28.38000      0.14819   85.4925   20.00000 1.02459
70.6531	    28.54500      0.15247   85.4848   20.00000 1.02440
70.9823	    28.71000      0.15532   85.4822   20.00000 1.02421
71.3112	    28.87500      0.15790   85.472   20.00000 1.02402
71.6394	    29.04000      0.16031   85.468   20.00000 1.02383
71.9675	    29.20500      0.16194   85.4605   20.00000 1.02365
72.2951	    29.37000      0.16314   85.4511   20.00000 1.02346
72.6223	    29.53500      0.16420   85.4435   20.00000 1.02328
72.9476	    29.70000      0.16451   85.4417   20.00000 1.02309
73.2729	    29.86500      0.16543   85.4331   20.00000 1.02291
73.5986	    30.03000      0.16480   85.4277   20.00000 1.02272
73.9228	    30.19500      0.16547   85.4205   20.00000 1.02254
74.2474	    30.36000      0.16490   85.4104   20.00000 1.02236
74.5719	    30.52500      0.16551   85.4076   20.00000 1.02217
74.898	    30.69000      0.16587   85.3983   20.00000 1.02199
75.2238	    30.85500      0.16527   85.3924   20.00000 1.02181
75.5467	    31.02000      0.16587   85.3848   20.00000 1.02163
75.8675	    31.18500      0.16530   85.3694   20.00000 1.02145
76.1881	    31.35000      0.16548   85.3633   20.00000 1.02126
76.5088	    31.51500      0.16456   85.3664   20.00000 1.02108
76.8284	    31.68000      0.16490   85.355   20.00000 1.02090
77.1468	    31.84500      0.16421   85.351   20.00000 1.02072
77.4666	    32.01000      0.16412   85.3508   20.00000 1.02054
77.7882	    32.17500      0.16343   85.3406   20.00000 1.02036
78.1086	    32.34000      0.16314   85.3307   20.00000 1.02018
78.4286	    32.50500      0.16191   85.3278   20.00000 1.02000
78.7486	    32.67000      0.16187   85.3186   20.00000 1.01982
79.069	    32.83500      0.16194   85.3161   20.00000 1.01964
79.3889	    33.00000      0.15991   85.3092   20.00000 1.01946
79.7083	    33.16500      0.16005   85.3008   20.00000 1.01929
80.0318	    33.33000      0.15825   85.2929   20.00000 1.01911
80.3556	    33.49500      0.15783   85.287   20.00000 1.01893
80.6784	    33.66000      0.15747   85.2716   20.00000 1.01875
81.0007	    33.82500      0.15668   85.2636   20.00000 1.01857
81.3243	    33.99000      0.15591   85.2564   20.00000 1.01839
81.6475	    34.15500      0.15473   85.2459   20.00000 1.01821
81.9655	    34.32000      0.15425   85.2344   20.00000 1.01804
82.2826	    34.48500      0.15327   85.2298   20.00000 1.01786
82.6011	    34.65000      0.15249   85.2183   20.00000 1.01768
82.9195	    34.81500      0.15099   85.2077   20.00000 1.01750
83.2368	    34.98000      0.15005   85.1972   20.00000 1.01732
83.5554	    35.14500      0.14941   85.1842   20.00000 1.01714
83.8757	    35.31000      0.14839   85.1769   20.00000 1.01696
84.1961	    35.47500      0.14701   85.1681   20.00000 1.01678
84.516	    35.64000      0.14653   85.1602   20.00000 1.01660
84.836	    35.80500      0.14650   85.1484   20.00000 1.01642
85.1563	    35.97000      0.14477   85.1407   20.00000 1.01624
85.4773	    36.13500      0.14362   85.1301   20.00000 1.01607
85.7978	    36.30000      0.14360   85.1172   20.00000 1.01589
86.1189	    36.46500      0.14093   85.1077   20.00000 1.01571
86.4411	    36.63000      0.14087   85.0975   20.00000 1.01553
86.7635	    36.79500      0.13952   85.0873   20.00000 1.01535
87.0857	    36.96000      0.13823   85.0815   20.00000 1.01518
87.4065	    37.12500      0.13677   85.0681   20.00000 1.01500
87.7274	    37.29000      0.13520   85.0494   20.00000 1.01482
88.0482	    37.45500      0.13423   85.0319   20.00000 1.01464
88.3688	    37.62000      0.13403   85.0137   20.00000 1.01446
88.6883	    37.78500      0.13206   85.0069   20.00000 1.01428
89.0061	    37.95000      0.13110   84.9956   20.00000 1.01410
89.3256	    38.11500      0.12913   84.9785   20.00000 1.01392
89.6452	    38.28000      0.12856   84.9585   20.00000 1.01374
89.9652	    38.44500      0.12665   84.9428   20.00000 1.01356
90.2865	    38.61000      0.12484   84.9301   20.00000 1.01339
90.6099	    38.77500      0.12395   84.9184   20.00000 1.01321
90.9349	    38.94000      0.12260   84.9053   20.00000 1.01303
91.2587	    39.10500      0.12204   84.886   20.00000 1.01285
91.5816	    39.27000      0.12016   84.8629   20.00000 1.01267
91.9031	    39.43500      0.11828   84.8504   20.00000 1.01250
92.2238	    39.60000      0.11693   84.8228   20.00000 1.01232
92.545	    39.76500      0.11475   84.798   20.00000 1.01214
92.8652	    39.93000      0.11312   84.7678   20.00000 1.01196
93.1851	    40.09500      0.11135   84.723   20.00000 1.01178
93.5049	    40.26000      0.10970   84.638   20.00000 1.01160
93.8203	    40.42500      0.10804   84.5096   20.00000 1.01142
94.1286	    40.59000      0.10511   84.2901   20.00000 1.01124
94.4218	    40.75500      0.10321   83.9426   20.00000 1.01106
94.6997	    40.92000      0.10072   83.4751   20.00000 1.01088
94.9621	    41.08500  9.7329e-002   82.861   20.00000 1.01070
95.2105	    41.25000  9.2999e-002   82.1841   20.00000 1.01052
95.4508	    41.41500  8.5914e-002   81.4847   20.00000 1.01034
95.6858	    41.58000  7.1605e-002   80.8027   20.00000 1.01017
95.9225	    41.74500  3.6861e-002   80.1154   20.00000 1.00999
96.1666	    41.91000 -8.6258e-002   79.4128   20.00000 1.00982
96.4193	    42.07500     -0.37489   78.7107   20.00000 1.00965
96.6822	    42.24000     -0.67052   78.0131   20.00000 1.00950
96.9538	    42.40500     -1.15962   77.3302   20.00000 1.00935
97.2346	    42.57000     -1.68189   76.6839   20.00000 1.00922
97.5245	    42.73500     -1.96635   76.0599   20.00000 1.00908
97.823	    42.90000     -2.12812   75.5251   20.00000 1.00895
98.1297	    43.06500     -2.22187   75.021   20.00000 1.00882
98.4444	    43.23000     -2.27153   74.5568   20.00000 1.00868
98.767	    43.39500     -2.28558   74.1144   20.00000 1.00854
99.0957	    43.56000     -2.26684   73.7136   20.00000 1.00840
99.4303	    43.72500     -2.22078   73.3485   20.00000 1.00824
99.7686	    43.89000     -2.14854   73.0151   20.00000 1.00809
100.112	    44.05500     -2.05583   72.7166   20.00000 1.00793
100.458	    44.22000     -1.94809   72.4622   20.00000 1.00776
100.808	    44.38500     -1.83063   72.2438   20.00000 1.00759
101.161	    44.55000     -1.70885   72.0662   20.00000 1.00741
101.519	    44.71500     -1.58708   71.9219   20.00000 1.00723
101.877	    44.88000     -1.46424   71.8143   20.00000 1.00705
102.236	    45.04500     -1.34120   71.7309   20.00000 1.00687
102.597	    45.21000     -1.21709   71.665   20.00000 1.00668
102.959	    45.37500     -1.09212   71.6123   20.00000 1.00649
103.32	    45.54000     -0.96662   71.5704   20.00000 1.00629
103.682	    45.70500     -0.84094   71.5312   20.00000 1.00610
104.044	    45.87000     -0.71331   71.503   20.00000 1.00590
104.405	    46.03500     -0.58492   71.4743   20.00000 1.00570
104.765	    46.20000     -0.45728   71.4473   20.00000 1.00550
105.122	    46.36500     -0.33544   71.4296   20.00000 1.00530
105.477	    46.53000     -0.22585   71.4148   20.00000 1.00510
105.828	    46.69500     -0.13450   71.4005   20.00000 1.00490
106.176	    46.86000 -6.6818e-002   71.3871   20.00000 1.00470
106.524	    47.02500 -1.6040e-002   71.3779   20.00000 1.00450
106.869	    47.19000  1.9538e-002   71.3769   20.00000 1.00430
107.213	    47.35500  4.6560e-002   71.3605   20.00000 1.00410
107.555	    47.52000  6.6330e-002   71.3505   20.00000 1.00390
107.898	    47.68500  8.3637e-002   71.3438   20.00000 1.00370
108.239	    47.85000      0.10033   71.3394   20.00000 1.00350
108.578	    48.01500      0.11548   71.3347   20.00000 1.00330
108.918	    48.18000      0.12690   71.3314   20.00000 1.00311
109.256	    48.34500      0.13674   71.3263   20.00000 1.00292
109.594	    48.51000      0.14399   71.3215   20.00000 1.00273
109.932	    48.67500      0.14845   71.3187   20.00000 1.00253
110.268	    48.84000      0.15249   71.3083   20.00000 1.00234
110.603	    49.00500      0.15480   71.3056   20.00000 1.00215
110.937	    49.17000      0.15757   71.3   20.00000 1.00196
111.271	    49.33500      0.15918   71.2909   20.00000 1.00177
111.603	    49.50000      0.16050   71.2884   20.00000 1.00159
111.935	    49.66500      0.16219   71.2884   20.00000 1.00140
112.266	    49.83000      0.16382   71.2852   20.00000 1.00121
112.597	    49.99500      0.16408   71.2794   20.00000 1.00102
112.927	    50.16000      0.16451   71.2733   20.00000 1.00083
113.256	    50.32500      0.16509   71.2665   20.00000 1.00065
