#FILE:                       	VA_130312_Cu_10_Ar.ngb-ss1
#FORMAT:                     	NETZSCH5                  
#IDENTITY:                   	VA_130312_Cu_10_Ar        
#DECIMAL:                    	POINT                     
#SEPARATOR:                  	TAB                       
#MTYPE:                      	DSC                       
#INSTRUMENT:                 	NETZSCH STA 449F1         
#PROJECT:                    	oxide hydroxide           
#DATE/TIME:                  	12.03.2013 14:19:20       
#CORR. FILE:                 	                          
#LABORATORY:                 	Нанотех                   
#OPERATOR:                   	Compositers               
#REMARK:                     	                          
#SAMPLE:                     	VA_130312_Cu_10_Ar        
#SAMPLE MASS /mg:            	7.10                      
#MATERIAL:                   	MxOy.kH2O                 
#REFERENCE:                  	                          
#REFERENCE MASS /mg:         	0                         
#TYPE OF CRUCIBLE:           	DSC/TG pan Pt-Rh          
#SAMPLE CRUCIBLE MASS /mg:   	183.71                    
#REFERENCE CRUCIBLE MASS /mg:	185                       
#CORR. CODE:                 	000                       
#EXO:                        	+1                        
#RANGE:                      	20/10.0(K/min)/350        
#SEGMENT:                    	S1/1                      

##Temp./°C	Time/min	DSC/(mW/mg)	Mass/%	Gas Flow(protective)/(ml/min)	Sensit./(uV/mW)
  21.909	    	    0.00000	     0.26782	100.00000   	20.00000	1.05000
  22.219	    	    0.83874	     0.24450	100.00005   	20.00000	1.04983
  22.529	    	    1.04671	     0.22602	100.0001   	20.00000	1.04966
  22.839	    	    1.19753	     0.21085	100.00015   	20.00000	1.04949
  23.149	    	    1.32264	     0.19601	100.0002   	20.00000	1.04932
  23.459	    	    1.43188	     0.18457	100.00025   	20.00000	1.04915
  23.769	    	    1.52971	     0.17090	100.0003   	20.00000	1.04898
  24.079	    	    1.61972	     0.16273	100.00414   	20.00000	1.04881
  24.389	    	    1.70400	     0.15216	100.00228   	20.00000	1.04864
  24.699	    	    1.78344	     0.14333	100.00245   	20.00000	1.04847
  25.009	    	    1.85893	     0.13523	99.99786   	20.00000	1.04830
  25.319	    	    1.93147	     0.12788	99.99554   	20.00000	1.04813
  25.629	    	    2.00146	     0.12132	99.99831   	20.00000	1.04796
  25.939	    	    2.06911	     0.11382	100.00213   	20.00000	1.04779
  26.249	    	    2.13454	     0.10848	100.0011   	20.00000	1.04762
  26.559	    	    2.19812	     0.10100	100.0004   	20.00000	1.04745
  26.869	    	    2.26010	 9.6020e-002	100.00214   	20.00000	1.04728
  27.179	    	    2.32061	 9.0668e-002	100.00016   	20.00000	1.04711
  27.489	    	    2.37985	 8.5105e-002	99.99984   	20.00000	1.04694
  27.799	    	    2.43790	 8.0135e-002	100.00034   	20.00000	1.04677
  28.109	    	    2.49492	 7.5268e-002	100.00035   	20.00000	1.04660
  28.419	    	    2.55093	 7.0979e-002	100.0013   	20.00000	1.04643
  28.729	    	    2.60587	 6.6490e-002	99.99767   	20.00000	1.04626
  29.039	    	    2.65994	 6.2872e-002	99.99565   	20.00000	1.04609
  29.349	    	    2.71312	 5.8157e-002	99.99837   	20.00000	1.04592
  29.659	    	    2.76562	 5.4318e-002	100.00025   	20.00000	1.04575
  29.969	    	    2.81755	 5.0326e-002	100.00214   	20.00000	1.04558
  30.279	    	    2.86878	 4.6853e-002	100.00059   	20.00000	1.04541
  30.589	    	    2.91938	 4.2112e-002	99.99765   	20.00000	1.04524
  30.899	    	    2.96934	 3.9305e-002	99.99608   	20.00000	1.04507
  31.209	    	    3.01870	 3.6147e-002	99.99847   	20.00000	1.04490
  31.519	    	    3.06754	 3.2415e-002	99.99863   	20.00000	1.04473
  31.829	    	    3.11587	 2.8923e-002	99.99878   	20.00000	1.04456
  32.139	    	    3.16372	 2.6471e-002	99.99905   	20.00000	1.04439
  32.449	    	    3.21115	 2.3568e-002	99.99845   	20.00000	1.04422
  32.759	    	    3.25815	 1.9518e-002	99.99879   	20.00000	1.04405
  33.069	    	    3.30477	 1.6492e-002	100.00036   	20.00000	1.04388
  33.379	    	    3.35105	 1.3402e-002	100.00074   	20.00000	1.04371
  33.689	    	    3.39697	 1.0873e-002	100.00079   	20.00000	1.04354
  33.999	    	    3.44252	 7.2344e-003	99.99901   	20.00000	1.04337
  34.309	    	    3.48773	 5.4525e-003	99.99996   	20.00000	1.04320
  34.619	    	    3.53258	 1.9700e-003	99.99978   	20.00000	1.04303
  34.929	    	    3.57711	-1.0211e-003	99.99943   	20.00000	1.04286
  35.239	    	    3.62131	-3.5432e-003	99.99947   	20.00000	1.04269
  35.549	    	    3.66520	-6.0820e-003	99.99756   	20.00000	1.04252
  35.859	    	    3.70881	-8.4883e-003	99.99959   	20.00000	1.04235
  36.169	    	    3.75214	-1.1130e-002	99.99586   	20.00000	1.04218
  36.479	    	    3.79516	-1.3610e-002	99.99707   	20.00000	1.04201
  36.789	    	    3.83796	-1.5642e-002	99.99892   	20.00000	1.04184
  37.099	    	    3.88050	-1.9013e-002	99.99866   	20.00000	1.04167
  37.409	    	    3.92280	-2.1178e-002	99.99807   	20.00000	1.04150
  37.719	    	    3.96487	-2.3624e-002	99.99605   	20.00000	1.04133
  38.029	    	    4.00679	-2.7911e-002	99.99811   	20.00000	1.04116
  38.339	    	    4.04849	-2.9807e-002	99.99821   	20.00000	1.04099
  38.649	    	    4.09001	-3.3038e-002	99.99618   	20.00000	1.04081
  38.959	    	    4.13133	-3.5701e-002	99.99624   	20.00000	1.04064
  39.269	    	    4.17247	-3.8295e-002	99.99655   	20.00000	1.04047
  39.579	    	    4.21339	-4.0783e-002	99.99617   	20.00000	1.04030
  39.889	    	    4.25409	-4.4434e-002	99.9972   	20.00000	1.04013
  40.199	    	    4.29459	-4.7305e-002	100.00058   	20.00000	1.03996
  40.509	    	    4.33490	-5.0428e-002	100.00084   	20.00000	1.03979
  40.819	    	    4.37500	-5.4575e-002	100.00297   	20.00000	1.03962
  41.129	    	    4.41492	-5.7475e-002	100.00123   	20.00000	1.03945
  41.439	    	    4.45471	-6.1583e-002	99.99921   	20.00000	1.03928
  41.749	    	    4.49431	-6.6411e-002	100.0005   	20.00000	1.03911
  42.059	    	    4.53377	-7.1596e-002	100.00094   	20.00000	1.03894
  42.369	    	    4.57311	-8.0481e-002	100.00209   	20.00000	1.03877
  42.679	    	    4.61233	-9.1693e-002	99.99948   	20.00000	1.03860
  42.989	    	    4.65137	    -0.10570	99.99493   	20.00000	1.03843
  43.299	    	    4.69032	    -0.12214	99.98409   	20.00000	1.03826
  43.609	    	    4.72920	    -0.14043	99.97018   	20.00000	1.03809
  43.919	    	    4.76796	    -0.15927	99.95759   	20.00000	1.03792
  44.229	    	    4.80660	    -0.17764	99.9453   	20.00000	1.03775
  44.539	    	    4.84517	    -0.19488	99.93346   	20.00000	1.03758
  44.849	    	    4.88366	    -0.21208	99.92223   	20.00000	1.03741
  45.159	    	    4.92204	    -0.22639	99.91317   	20.00000	1.03723
  45.469	    	    4.96027	    -0.24328	99.89702   	20.00000	1.03706
  45.779	    	    4.99841	    -0.25752	99.87951   	20.00000	1.03689
  46.089	    	    5.03639	    -0.27147	99.86051   	20.00000	1.03672
  46.399	    	    5.07424	    -0.28443	99.83915   	20.00000	1.03655
  46.709	    	    5.11196	    -0.29887	99.81902   	20.00000	1.03638
  47.019	    	    5.14957	    -0.31273	99.79894   	20.00000	1.03621
  47.329	    	    5.18710	    -0.32632	99.77829   	20.00000	1.03604
  47.639	    	    5.22457	    -0.34041	99.757   	20.00000	1.03587
  47.949	    	    5.26194	    -0.35253	99.73328   	20.00000	1.03570
  48.259	    	    5.29919	    -0.36639	99.70891   	20.00000	1.03553
  48.569	    	    5.33636	    -0.37948	99.68502   	20.00000	1.03536
  48.879	    	    5.37344	    -0.39259	99.65943   	20.00000	1.03519
  49.189	    	    5.41041	    -0.40619	99.63274   	20.00000	1.03502
  49.499	    	    5.44728	    -0.41946	99.60534   	20.00000	1.03485
  49.809	    	    5.48409	    -0.43342	99.5764   	20.00000	1.03468
  50.119	    	    5.52082	    -0.44655	99.54727   	20.00000	1.03451
  50.429	    	    5.55747	    -0.46170	99.51457   	20.00000	1.03433
  50.739	    	    5.59402	    -0.47639	99.4832   	20.00000	1.03416
  51.049	    	    5.63049	    -0.48977	99.4502   	20.00000	1.03399
  51.359	    	    5.66691	    -0.50321	99.41611   	20.00000	1.03382
  51.669	    	    5.70324	    -0.51761	99.38053   	20.00000	1.03365
  51.979	    	    5.73949	    -0.53271	99.34269   	20.00000	1.03348
  52.289	    	    5.77566	    -0.54811	99.30559   	20.00000	1.03331
  52.599	    	    5.81178	    -0.56267	99.26833   	20.00000	1.03314
  52.909	    	    5.84783	    -0.57754	99.23067   	20.00000	1.03297
  53.219	    	    5.88377	    -0.59186	99.19229   	20.00000	1.03280
  53.529	    	    5.91963	    -0.60663	99.1553   	20.00000	1.03263
  53.839	    	    5.95540	    -0.62253	99.1181   	20.00000	1.03246
  54.149	    	    5.99109	    -0.63901	99.07917   	20.00000	1.03229
  54.459	    	    6.02666	    -0.65479	99.03809   	20.00000	1.03212
  54.769	    	    6.06214	    -0.67064	98.99873   	20.00000	1.03195
  55.079	    	    6.09756	    -0.68703	98.95764   	20.00000	1.03177
  55.389	    	    6.13293	    -0.70437	98.91467   	20.00000	1.03160
  55.699	    	    6.16828	    -0.71985	98.8668   	20.00000	1.03143
  56.009	    	    6.20361	    -0.73656	98.81481   	20.00000	1.03126
  56.319	    	    6.23893	    -0.75305	98.76542   	20.00000	1.03109
  56.629	    	    6.27421	    -0.77031	98.71465   	20.00000	1.03092
  56.939	    	    6.30943	    -0.78597	98.66558   	20.00000	1.03075
  57.249	    	    6.34453	    -0.80443	98.6131   	20.00000	1.03058
  57.559	    	    6.37953	    -0.82193	98.55963   	20.00000	1.03041
  57.869	    	    6.41444	    -0.83877	98.50547   	20.00000	1.03024
  58.179	    	    6.44926	    -0.85874	98.44432   	20.00000	1.03007
  58.489	    	    6.48400	    -0.87653	98.39409   	20.00000	1.02990
  58.799	    	    6.51869	    -0.89422	98.339   	20.00000	1.02973
  59.109	    	    6.55335	    -0.91242	98.28706   	20.00000	1.02956
  59.419	    	    6.58795	    -0.93143	98.22961   	20.00000	1.02938
  59.729	    	    6.62246	    -0.95001	98.16014   	20.00000	1.02921
  60.039	    	    6.65690	    -0.96922	98.10216   	20.00000	1.02904
  60.349	    	    6.69130	    -0.98740	98.04203   	20.00000	1.02887
  60.659	    	    6.72564	    -1.00660	97.9849   	20.00000	1.02870
  60.969	    	    6.75994	    -1.02707	97.92159   	20.00000	1.02853
  61.279	    	    6.79423	    -1.04617	97.85354   	20.00000	1.02836
  61.589	    	    6.82851	    -1.06667	97.78297   	20.00000	1.02819
  61.899	    	    6.86276	    -1.08568	97.71193   	20.00000	1.02802
  62.209	    	    6.89697	    -1.10467	97.63601   	20.00000	1.02785
  62.519	    	    6.93116	    -1.12651	97.55946   	20.00000	1.02768
  62.829	    	    6.96528	    -1.14710	97.48337   	20.00000	1.02751
  63.139	    	    6.99936	    -1.16511	97.40878   	20.00000	1.02734
  63.449	    	    7.03337	    -1.18857	97.33214   	20.00000	1.02716
  63.759	    	    7.06737	    -1.20918	97.25629   	20.00000	1.02699
  64.069	    	    7.10130	    -1.23004	97.17826   	20.00000	1.02682
  64.379	    	    7.13516	    -1.25150	97.10265   	20.00000	1.02665
  64.689	    	    7.16897	    -1.27280	97.02361   	20.00000	1.02648
  64.999	    	    7.20276	    -1.29527	96.94379   	20.00000	1.02631
  65.309	    	    7.23654	    -1.31705	96.859   	20.00000	1.02614
  65.619	    	    7.27028	    -1.33915	96.77397   	20.00000	1.02597
  65.929	    	    7.30405	    -1.36228	96.68958   	20.00000	1.02580
  66.239	    	    7.33786	    -1.38456	96.60246   	20.00000	1.02563
  66.549	    	    7.37169	    -1.40661	96.51072   	20.00000	1.02546
  66.859	    	    7.40550	    -1.43062	96.41868   	20.00000	1.02529
  67.169	    	    7.43925	    -1.45381	96.32425   	20.00000	1.02511
  67.479	    	    7.47300	    -1.47774	96.22783   	20.00000	1.02494
  67.789	    	    7.50668	    -1.50150	96.13286   	20.00000	1.02477
  68.099	    	    7.54029	    -1.52541	96.03298   	20.00000	1.02460
  68.409	    	    7.57382	    -1.55056	95.93496   	20.00000	1.02443
  68.719	    	    7.60731	    -1.57419	95.83459   	20.00000	1.02426
  69.029	    	    7.64078	    -1.59925	95.73362   	20.00000	1.02409
  69.339	    	    7.67422	    -1.62423	95.62773   	20.00000	1.02392
  69.649	    	    7.70764	    -1.64898	95.52333   	20.00000	1.02375
  69.959	    	    7.74108	    -1.67548	95.41622   	20.00000	1.02358
  70.269	    	    7.77454	    -1.70130	95.30713   	20.00000	1.02341
  70.579	    	    7.80798	    -1.72455	95.19532   	20.00000	1.02324
  70.889	    	    7.84143	    -1.75397	95.08156   	20.00000	1.02306
  71.199	    	    7.87493	    -1.78067	94.96618   	20.00000	1.02289
  71.509	    	    7.90848	    -1.80784	94.83835   	20.00000	1.02272
  71.819	    	    7.94204	    -1.83638	94.70829   	20.00000	1.02255
  72.129	    	    7.97564	    -1.86368	94.58428   	20.00000	1.02238
  72.439	    	    8.00931	    -1.89269	94.45045   	20.00000	1.02221
  72.749	    	    8.04303	    -1.92179	94.32498   	20.00000	1.02204
  73.059	    	    8.07670	    -1.95078	94.17209   	20.00000	1.02187
  73.369	    	    8.11031	    -1.98042	94.0499   	20.00000	1.02170
  73.679	    	    8.14389	    -2.01077	93.898   	20.00000	1.02153
  73.989	    	    8.17740	    -2.04162	93.75885   	20.00000	1.02136
  74.299	    	    8.21082	    -2.07144	93.59197   	20.00000	1.02119
  74.609	    	    8.24416	    -2.10258	93.45031   	20.00000	1.02101
  74.919	    	    8.27747	    -2.13358	93.26843   	20.00000	1.02084
  75.229	    	    8.31073	    -2.16501	93.11998   	20.00000	1.02067
  75.539	    	    8.34398	    -2.19665	92.98059   	20.00000	1.02050
  75.849	    	    8.37718	    -2.22760	92.82448   	20.00000	1.02033
  76.159	    	    8.41037	    -2.25951	92.68414   	20.00000	1.02016
  76.469	    	    8.44353	    -2.29119	92.52801   	20.00000	1.01999
  76.779	    	    8.47669	    -2.32266	92.38168   	20.00000	1.01982
  77.089	    	    8.50985	    -2.35543	92.21656   	20.00000	1.01965
  77.399	    	    8.54296	    -2.38710	92.04496   	20.00000	1.01948
  77.709	    	    8.57608	    -2.41970	91.89008   	20.00000	1.01931
  78.019	    	    8.60917	    -2.45050	91.7153   	20.00000	1.01914
  78.329	    	    8.64228	    -2.48140	91.55881   	20.00000	1.01897
  78.639	    	    8.67540	    -2.51278	91.37593   	20.00000	1.01879
  78.949	    	    8.70849	    -2.54407	91.21325   	20.00000	1.01862
  79.259	    	    8.74158	    -2.57285	91.03116   	20.00000	1.01845
  79.569	    	    8.77465	    -2.60328	90.87128   	20.00000	1.01828
  79.879	    	    8.80775	    -2.63234	90.6893   	20.00000	1.01811
  80.189	    	    8.84081	    -2.65925	90.50741   	20.00000	1.01794
  80.499	    	    8.87380	    -2.68586	90.32953   	20.00000	1.01777
  80.809	    	    8.90675	    -2.71199	90.15055   	20.00000	1.01760
  81.119	    	    8.93967	    -2.73615	89.9482   	20.00000	1.01743
  81.429	    	    8.97252	    -2.75904	89.7664   	20.00000	1.01726
  81.739	    	    9.00529	    -2.77902	89.5787   	20.00000	1.01709
  82.049	    	    9.03799	    -2.79764	89.3889   	20.00000	1.01692
  82.359	    	    9.07068	    -2.81452	89.1904   	20.00000	1.01674
  82.669	    	    9.10335	    -2.82681	89.0007   	20.00000	1.01657
  82.979	    	    9.13596	    -2.83965	88.8108   	20.00000	1.01640
  83.289	    	    9.16856	    -2.84813	88.6219   	20.00000	1.01623
  83.599	    	    9.20113	    -2.85318	88.4374   	20.00000	1.01606
  83.909	    	    9.23366	    -2.85636	88.2485   	20.00000	1.01589
  84.219	    	    9.26613	    -2.85540	88.0689   	20.00000	1.01572
  84.529	    	    9.29849	    -2.85026	87.8754   	20.00000	1.01555
  84.839	    	    9.33078	    -2.84042	87.7053   	20.00000	1.01538
  85.149	    	    9.36296	    -2.82589	87.5149   	20.00000	1.01521
  85.459	    	    9.39504	    -2.80622	87.3582   	20.00000	1.01504
  85.769	    	    9.42702	    -2.78188	87.1914   	20.00000	1.01487
  86.079	    	    9.45890	    -2.74957	87.0302   	20.00000	1.01470
  86.389	    	    9.49067	    -2.71253	86.8689   	20.00000	1.01452
  86.699	    	    9.52235	    -2.67035	86.7263   	20.00000	1.01435
  87.009	    	    9.55393	    -2.62209	86.5986   	20.00000	1.01418
  87.319	    	    9.58540	    -2.57006	86.4883   	20.00000	1.01401
  87.629	    	    9.61678	    -2.50944	86.3919   	20.00000	1.01384
  87.939	    	    9.64803	    -2.44249	86.2904   	20.00000	1.01367
  88.249	    	    9.67918	    -2.36416	86.2062   	20.00000	1.01350
  88.559	    	    9.71021	    -2.27567	86.1406   	20.00000	1.01333
  88.869	    	    9.74113	    -2.17679	86.0884   	20.00000	1.01316
  89.179	    	    9.77194	    -2.06674	86.0297   	20.00000	1.01299
  89.489	    	    9.80260	    -1.94843	85.9855   	20.00000	1.01282
  89.799	    	    9.83312	    -1.82353	85.9475   	20.00000	1.01265
  90.109	    	    9.86352	    -1.69608	85.9147   	20.00000	1.01248
  90.419	    	    9.89376	    -1.56866	85.8891   	20.00000	1.01230
  90.729	    	    9.92386	    -1.44374	85.8725   	20.00000	1.01213
  91.039	    	    9.95381	    -1.32342	85.8568   	20.00000	1.01196
  91.349	    	    9.98364	    -1.20919	85.8449   	20.00000	1.01179
  91.659	    	   10.01335	    -1.10588	85.8346   	20.00000	1.01162
  91.969	    	   10.04295	    -1.01016	85.8258   	20.00000	1.01145
  92.279	    	   10.07248	    -0.92589	85.8181   	20.00000	1.01128
  92.589	    	   10.10196	    -0.84971	85.8107   	20.00000	1.01111
  92.899	    	   10.13138	    -0.78017	85.8034   	20.00000	1.01094
  93.209	    	   10.16077	    -0.71840	85.7955   	20.00000	1.01077
  93.519	    	   10.19012	    -0.66434	85.7871   	20.00000	1.01060
  93.829	    	   10.21949	    -0.61654	85.78   	20.00000	1.01043
  94.139	    	   10.24885	    -0.57222	85.774   	20.00000	1.01026
  94.449	    	   10.27820	    -0.53633	85.7696   	20.00000	1.01009
  94.759	    	   10.30754	    -0.50215	85.7657   	20.00000	1.00992
  95.069	    	   10.33688	    -0.47176	85.7607   	20.00000	1.00974
  95.379	    	   10.36624	    -0.44537	85.7547   	20.00000	1.00957
  95.689	    	   10.39562	    -0.42517	85.7485   	20.00000	1.00940
  95.999	    	   10.42498	    -0.40557	85.7435   	20.00000	1.00923
  96.309	    	   10.45434	    -0.38757	85.7381   	20.00000	1.00906
  96.619	    	   10.48371	    -0.37412	85.7328   	20.00000	1.00889
  96.929	    	   10.51310	    -0.35983	85.7269   	20.00000	1.00872
  97.239	    	   10.54251	    -0.34936	85.7206   	20.00000	1.00855
  97.549	    	   10.57194	    -0.34024	85.7135   	20.00000	1.00838
  97.859	    	   10.60141	    -0.33262	85.7067   	20.00000	1.00821
  98.169	    	   10.63090	    -0.32512	85.6998   	20.00000	1.00804
  98.479	    	   10.66041	    -0.32159	85.6946   	20.00000	1.00787
  98.789	    	   10.68995	    -0.31757	85.6904   	20.00000	1.00770
  99.099	    	   10.71951	    -0.31417	85.6868   	20.00000	1.00753
  99.409	    	   10.74909	    -0.31139	85.6823   	20.00000	1.00736
  99.719	    	   10.77866	    -0.31142	85.677   	20.00000	1.00719
  100.029	    	   10.80823	    -0.31112	85.6708   	20.00000	1.00702
  100.339	    	   10.83781	    -0.31141	85.6651   	20.00000	1.00684
  100.649	    	   10.86742	    -0.31373	85.6592   	20.00000	1.00667
  100.959	    	   10.89704	    -0.31683	85.6536   	20.00000	1.00650
  101.269	    	   10.92667	    -0.31908	85.6474   	20.00000	1.00633
  101.579	    	   10.95632	    -0.32324	85.6408   	20.00000	1.00616
  101.889	    	   10.98600	    -0.32739	85.6336   	20.00000	1.00599
  102.199	    	   11.01572	    -0.33241	85.6254   	20.00000	1.00582
  102.509	    	   11.04545	    -0.33840	85.6169   	20.00000	1.00565
  102.819	    	   11.07521	    -0.34383	85.6071   	20.00000	1.00548
  103.129	    	   11.10499	    -0.35081	85.5941   	20.00000	1.00531
  103.439	    	   11.13480	    -0.35862	85.5744   	20.00000	1.00514
  103.749	    	   11.16462	    -0.36749	85.5545   	20.00000	1.00497
  104.059	    	   11.19443	    -0.37707	85.5363   	20.00000	1.00480
  104.369	    	   11.22425	    -0.39070	85.5161   	20.00000	1.00463
  104.679	    	   11.25409	    -0.40921	85.488   	20.00000	1.00446
  104.989	    	   11.28391	    -0.43622	85.4545   	20.00000	1.00429
  105.299	    	   11.31377	    -0.48573	85.4041   	20.00000	1.00412
  105.609	    	   11.34372	    -0.56714	85.337   	20.00000	1.00395
  105.919	    	   11.37383	    -0.67136	85.2289   	20.00000	1.00378
